Capacity (mAh), Voltage (V)
0, 4.488609
0.013, 4.451712
16.336, 4.421834
32.685, 4.409942
49.035, 4.400189
65.385, 4.391953
81.735, 4.384881
98.085, 4.378533
114.434, 4.373044
130.784, 4.367734
147.134, 4.362981
163.484, 4.358708
179.834, 4.354563
196.184, 4.350783
212.533, 4.347004
228.883, 4.343471
245.233, 4.339809
261.583, 4.336757
277.932, 4.333339
294.282, 4.329923
310.632, 4.326687
326.982, 4.323454
343.332, 4.320284
359.682, 4.317238
376.031, 4.313885
392.381, 4.310536
408.731, 4.307488
425.081, 4.30438
441.43, 4.301023
457.78, 4.29791
474.13, 4.294678
490.48, 4.291015
506.83, 4.287966
523.179, 4.284674
539.529, 4.281257
555.879, 4.278146
572.229, 4.274613
588.579, 4.271197
604.928, 4.267843
621.278, 4.264428
637.628, 4.260833
653.978, 4.257474
670.327, 4.253996
686.677, 4.250461
703.027, 4.246804
719.377, 4.243444
735.727, 4.239604
752.077, 4.235821
768.426, 4.232165
784.776, 4.228691
801.126, 4.224855
817.476, 4.221201
833.825, 4.217532
850.175, 4.213931
866.525, 4.21015
882.875, 4.206251
899.225, 4.202588
915.574, 4.198627
931.924, 4.194959
948.274, 4.191001
964.624, 4.187037
980.974, 4.183075
997.324, 4.179423
1013.673, 4.175513
1030.023, 4.171487
1046.373, 4.167765
1062.723, 4.163863
1079.072, 4.160079
1095.422, 4.156176
1111.772, 4.151968
1128.122, 4.148307
1144.472, 4.144352
1160.821, 4.140381
1177.171, 4.136421
1193.521, 4.132454
1209.871, 4.128491
1226.221, 4.124528
1242.57, 4.120557
1258.92, 4.116901
1275.27, 4.112755
1291.62, 4.108915
1307.97, 4.104764
1324.32, 4.100797
1340.669, 4.097081
1357.019, 4.09312
1373.369, 4.089154
1389.718, 4.085192
1406.068, 4.08123
1422.418, 4.077514
1438.768, 4.073304
1455.118, 4.069401
1471.467, 4.06537
1487.817, 4.061405
1504.167, 4.057441
1520.517, 4.053296
1536.867, 4.049268
1553.216, 4.045243
1569.566, 4.041283
1585.916, 4.037013
1602.266, 4.033044
1618.616, 4.028786
1634.965, 4.024816
1651.315, 4.020548
1667.665, 4.016274
1684.015, 4.012007
1700.364, 4.007735
1716.714, 4.003527
1733.064, 3.999502
1749.414, 3.995052
1765.764, 3.990728
1782.114, 3.986582
1798.464, 3.982433
1814.813, 3.977859
1831.163, 3.973651
1847.513, 3.969624
1863.863, 3.96566
1880.213, 3.96158
1896.562, 3.957434
1912.912, 3.953649
1929.262, 3.949812
1945.611, 3.946147
1961.961, 3.942487
1978.311, 3.938824
1994.661, 3.935163
2011.011, 3.931808
2027.36, 3.928452
2043.71, 3.925225
2060.06, 3.922052
2076.41, 3.918702
2092.76, 3.915654
2109.109, 3.912603
2125.459, 3.909243
2141.809, 3.906505
2158.159, 3.903451
2174.509, 3.9004
2190.859, 3.897479
2207.208, 3.89461
2223.558, 3.891871
2239.908, 3.889072
2256.257, 3.886082
2272.607, 3.883518
2288.957, 3.880593
2305.307, 3.878144
2321.657, 3.875404
2338.006, 3.87284
2354.356, 3.870217
2370.706, 3.86766
2387.056, 3.865037
2403.406, 3.862534
2419.756, 3.859855
2436.105, 3.857473
2452.455, 3.854972
2468.805, 3.852535
2485.155, 3.850091
2501.504, 3.84765
2517.854, 3.84521
2534.204, 3.842767
2550.554, 3.840332
2566.904, 3.837953
2583.254, 3.835762
2599.603, 3.833321
2615.953, 3.830885
2632.303, 3.828689
2648.653, 3.826308
2665.003, 3.824176
2681.352, 3.821731
2697.702, 3.819474
2714.052, 3.817157
2730.402, 3.815024
2746.752, 3.812583
2763.101, 3.810445
2779.451, 3.808252
2795.801, 3.806177
2812.15, 3.803746
2828.5, 3.801547
2844.85, 3.799409
2861.2, 3.797033
2877.55, 3.794895
2893.899, 3.792703
2910.249, 3.790383
2926.599, 3.788187
2942.949, 3.786052
2959.299, 3.783613
2975.649, 3.781478
2991.998, 3.779346
3008.348, 3.776907
3024.698, 3.774774
3041.048, 3.772394
3057.397, 3.770197
3073.747, 3.767758
3090.097, 3.765625
3106.447, 3.763123
3122.797, 3.760741
3139.146, 3.758306
3155.496, 3.755862
3171.846, 3.753426
3188.196, 3.750986
3204.546, 3.748248
3220.895, 3.745806
3237.245, 3.743057
3253.595, 3.740557
3269.945, 3.737872
3286.295, 3.735431
3302.644, 3.732685
3318.994, 3.729939
3335.344, 3.727501
3351.694, 3.724514
3368.043, 3.722015
3384.393, 3.718965
3400.743, 3.71622
3417.093, 3.713413
3433.443, 3.710426
3449.793, 3.70738
3466.142, 3.70421
3482.492, 3.701099
3498.842, 3.697927
3515.192, 3.694819
3531.542, 3.691771
3547.891, 3.688477
3564.241, 3.685123
3580.591, 3.682072
3596.941, 3.678725
3613.29, 3.675376
3629.64, 3.6722
3645.99, 3.668969
3662.34, 3.665608
3678.689, 3.662864
3695.039, 3.660118
3711.389, 3.657984
3727.739, 3.655545
3744.089, 3.65372
3760.439, 3.651885
3776.788, 3.650361
3793.138, 3.648836
3809.488, 3.647311
3825.838, 3.64579
3842.188, 3.644265
3858.538, 3.642739
3874.887, 3.641089
3891.237, 3.639386
3907.587, 3.637253
3923.936, 3.635307
3940.286, 3.632985
3956.636, 3.629996
3972.986, 3.626579
3989.336, 3.622861
4005.686, 3.618651
4022.035, 3.614075
4038.385, 3.609505
4054.735, 3.604635
4071.085, 3.599696
4087.435, 3.594563
4103.784, 3.589683
4120.134, 3.584738
4136.484, 3.579924
4152.834, 3.575041
4169.183, 3.570167
4185.533, 3.56492
4201.883, 3.559491
4218.233, 3.554003
4234.583, 3.548209
4250.933, 3.54211
4267.282, 3.536008
4283.632, 3.529609
4299.982, 3.5229
4316.332, 3.515889
4332.682, 3.508263
4349.031, 3.500947
4365.381, 3.493016
4381.731, 3.485087
4398.081, 3.476854
4414.431, 3.468623
4430.781, 3.460084
4447.13, 3.451242
4463.48, 3.442702
4479.829, 3.434167
4496.179, 3.425022
4512.529, 3.416183
4528.879, 3.407033
4545.229, 3.397879
4561.578, 3.388612
4577.928, 3.379094
4594.278, 3.369216
4610.628, 3.359157
4626.978, 3.348487
4643.328, 3.337569
4659.677, 3.326105
4676.027, 3.314025
4692.377, 3.301528
4708.727, 3.288233
4725.076, 3.274391
4741.426, 3.259934
4757.776, 3.244871
4774.126, 3.229561
4790.476, 3.214012
4806.825, 3.197854
4823.175, 3.182114
4839.525, 3.165831
4855.875, 3.149363
4872.225, 3.13302
4888.574, 3.116133
4904.924, 3.099058
4921.274, 3.081614
4937.624, 3.063375
4953.974, 3.044777
4970.324, 3.02459
4986.673, 3.002574
4988.554, 2.999952
